#  E (eV)   dos(E)     Int dos(E) EFermi =    6.036 eV
 -10.000  0.2498E-84  0.1249E-85
  -9.950  0.2498E-84  0.2498E-85
  -9.900  0.2498E-84  0.3748E-85
  -9.850  0.2498E-84  0.4997E-85
  -9.800  0.2498E-84  0.6246E-85
  -9.750  0.2498E-84  0.7495E-85
  -9.700  0.2498E-84  0.8745E-85
  -9.650  0.2498E-84  0.9994E-85
  -9.600  0.2498E-84  0.1124E-84
  -9.550  0.2498E-84  0.1249E-84
  -9.500  0.2498E-84  0.1374E-84
  -9.450  0.2498E-84  0.1499E-84
  -9.400  0.2498E-84  0.1624E-84
  -9.350  0.2498E-84  0.1749E-84
  -9.300  0.2498E-84  0.1874E-84
  -9.250  0.2498E-84  0.1999E-84
  -9.200  0.2498E-84  0.2124E-84
  -9.150  0.2498E-84  0.2249E-84
  -9.100  0.2498E-84  0.2374E-84
  -9.050  0.2498E-84  0.2498E-84
  -9.000  0.2498E-84  0.2623E-84
  -8.950  0.2498E-84  0.2748E-84
  -8.900  0.2498E-84  0.2873E-84
  -8.850  0.2498E-84  0.2998E-84
  -8.800  0.2498E-84  0.3123E-84
  -8.750  0.2498E-84  0.3248E-84
  -8.700  0.2498E-84  0.3373E-84
  -8.650  0.2498E-84  0.3498E-84
  -8.600  0.2498E-84  0.3623E-84
  -8.550  0.2498E-84  0.3748E-84
  -8.500  0.2498E-84  0.3873E-84
  -8.450  0.2498E-84  0.3998E-84
  -8.400  0.2498E-84  0.4123E-84
  -8.350  0.2498E-84  0.4247E-84
  -8.300  0.2498E-84  0.4372E-84
  -8.250  0.2498E-84  0.4497E-84
  -8.200  0.2498E-84  0.4622E-84
  -8.150  0.2498E-84  0.4747E-84
  -8.100  0.2498E-84  0.4872E-84
  -8.050  0.2498E-84  0.4997E-84
  -8.000  0.2498E-84  0.5122E-84
  -7.950  0.2498E-84  0.5247E-84
  -7.900  0.2498E-84  0.5372E-84
  -7.850  0.2498E-84  0.5497E-84
  -7.800  0.2498E-84  0.5622E-84
  -7.750  0.2498E-84  0.5747E-84
  -7.700  0.2498E-84  0.5871E-84
  -7.650  0.2498E-84  0.5996E-84
  -7.600  0.2498E-84  0.6121E-84
  -7.550  0.2498E-84  0.6246E-84
  -7.500  0.2498E-84  0.6371E-84
  -7.450  0.2498E-84  0.6496E-84
  -7.400  0.2498E-84  0.6621E-84
  -7.350  0.2498E-84  0.6746E-84
  -7.300  0.2498E-84  0.6871E-84
  -7.250  0.2498E-84  0.6996E-84
  -7.200  0.2498E-84  0.7121E-84
  -7.150  0.2498E-84  0.7246E-84
  -7.100  0.2498E-84  0.7371E-84
  -7.050  0.2498E-84  0.7495E-84
  -7.000  0.2498E-84  0.7620E-84
  -6.950  0.2498E-84  0.7745E-84
  -6.900  0.2498E-84  0.7870E-84
  -6.850  0.2498E-84  0.7995E-84
  -6.800  0.2498E-84  0.8120E-84
  -6.750  0.2498E-84  0.8245E-84
  -6.700  0.2498E-84  0.8370E-84
  -6.650  0.2498E-84  0.8495E-84
  -6.600  0.2498E-84  0.8620E-84
  -6.550  0.2498E-84  0.8745E-84
  -6.500  0.2499E-84  0.8870E-84
  -6.450  0.9226E-77  0.4613E-78
  -6.400  0.7288E-66  0.3644E-67
  -6.350  0.7831E-56  0.3916E-57
  -6.300  0.1148E-46  0.5741E-48
  -6.250  0.2310E-38  0.1155E-39
  -6.200  0.6426E-31  0.3213E-32
  -6.150  0.2502E-24  0.1251E-25
  -6.100  0.1384E-18  0.6920E-20
  -6.050  0.1107E-13  0.5533E-15
  -6.000  0.1300E-09  0.6499E-11
  -5.950  0.2279E-06  0.1140E-07
  -5.900  0.6153E-04  0.3088E-05
  -5.850  0.2775E-02  0.1418E-03
  -5.800  0.2545E-01  0.1414E-02
  -5.750  0.7107E-01  0.4967E-02
  -5.700  0.1079E+00  0.1036E-01
  -5.650  0.1354E+00  0.1713E-01
  -5.600  0.1565E+00  0.2496E-01
  -5.550  0.1763E+00  0.3378E-01
  -5.500  0.1943E+00  0.4349E-01
  -5.450  0.2120E+00  0.5409E-01
  -5.400  0.2211E+00  0.6515E-01
  -5.350  0.2503E+00  0.7766E-01
  -5.300  0.2405E+00  0.8969E-01
  -5.250  0.2804E+00  0.1037E+00
  -5.200  0.2798E+00  0.1177E+00
  -5.150  0.2794E+00  0.1317E+00
  -5.100  0.3232E+00  0.1478E+00
  -5.050  0.3180E+00  0.1637E+00
  -5.000  0.3068E+00  0.1791E+00
  -4.950  0.3630E+00  0.1972E+00
  -4.900  0.3608E+00  0.2153E+00
  -4.850  0.3337E+00  0.2319E+00
  -4.800  0.3876E+00  0.2513E+00
  -4.750  0.4048E+00  0.2716E+00
  -4.700  0.3908E+00  0.2911E+00
  -4.650  0.3753E+00  0.3099E+00
  -4.600  0.4492E+00  0.3323E+00
  -4.550  0.4541E+00  0.3550E+00
  -4.500  0.4089E+00  0.3755E+00
  -4.450  0.4353E+00  0.3973E+00
  -4.400  0.4996E+00  0.4222E+00
  -4.350  0.4953E+00  0.4470E+00
  -4.300  0.4559E+00  0.4698E+00
  -4.250  0.4838E+00  0.4940E+00
  -4.200  0.5366E+00  0.5208E+00
  -4.150  0.5519E+00  0.5484E+00
  -4.100  0.5383E+00  0.5753E+00
  -4.050  0.4915E+00  0.5999E+00
  -4.000  0.5973E+00  0.6298E+00
  -3.950  0.6183E+00  0.6607E+00
  -3.900  0.6218E+00  0.6918E+00
  -3.850  0.5436E+00  0.7190E+00
  -3.800  0.6324E+00  0.7506E+00
  -3.750  0.7162E+00  0.7864E+00
  -3.700  0.7116E+00  0.8220E+00
  -3.650  0.6734E+00  0.8556E+00
  -3.600  0.7038E+00  0.8908E+00
  -3.550  0.8471E+00  0.9332E+00
  -3.500  0.9394E+00  0.9801E+00
  -3.450  0.9125E+00  0.1026E+01
  -3.400  0.7737E+00  0.1064E+01
  -3.350  0.8751E+00  0.1108E+01
  -3.300  0.9403E+00  0.1155E+01
  -3.250  0.8238E+00  0.1196E+01
  -3.200  0.7581E+00  0.1234E+01
  -3.150  0.7599E+00  0.1272E+01
  -3.100  0.8512E+00  0.1315E+01
  -3.050  0.7549E+00  0.1353E+01
  -3.000  0.7422E+00  0.1390E+01
  -2.950  0.6820E+00  0.1424E+01
  -2.900  0.7234E+00  0.1460E+01
  -2.850  0.7024E+00  0.1495E+01
  -2.800  0.7073E+00  0.1530E+01
  -2.750  0.5920E+00  0.1560E+01
  -2.700  0.6457E+00  0.1592E+01
  -2.650  0.6541E+00  0.1625E+01
  -2.600  0.5652E+00  0.1653E+01
  -2.550  0.5867E+00  0.1683E+01
  -2.500  0.5944E+00  0.1712E+01
  -2.450  0.5122E+00  0.1738E+01
  -2.400  0.4776E+00  0.1762E+01
  -2.350  0.5707E+00  0.1790E+01
  -2.300  0.5168E+00  0.1816E+01
  -2.250  0.3832E+00  0.1835E+01
  -2.200  0.3949E+00  0.1855E+01
  -2.150  0.5183E+00  0.1881E+01
  -2.100  0.4194E+00  0.1902E+01
  -2.050  0.2813E+00  0.1916E+01
  -2.000  0.3069E+00  0.1931E+01
  -1.950  0.3912E+00  0.1951E+01
  -1.900  0.3142E+00  0.1967E+01
  -1.850  0.1788E+00  0.1976E+01
  -1.800  0.1911E+00  0.1985E+01
  -1.750  0.1700E+00  0.1994E+01
  -1.700  0.9816E-01  0.1999E+01
  -1.650  0.8259E-01  0.2003E+01
  -1.600  0.9027E-01  0.2007E+01
  -1.550  0.7607E-01  0.2011E+01
  -1.500  0.1129E+00  0.2017E+01
  -1.450  0.2310E+00  0.2028E+01
  -1.400  0.2867E+00  0.2043E+01
  -1.350  0.2199E+00  0.2054E+01
  -1.300  0.1761E+00  0.2062E+01
  -1.250  0.3295E+00  0.2079E+01
  -1.200  0.5054E+00  0.2104E+01
  -1.150  0.3757E+00  0.2123E+01
  -1.100  0.2685E+00  0.2136E+01
  -1.050  0.3626E+00  0.2154E+01
  -1.000  0.6806E+00  0.2189E+01
  -0.950  0.5825E+00  0.2218E+01
  -0.900  0.3978E+00  0.2238E+01
  -0.850  0.6302E+00  0.2269E+01
  -0.800  0.1036E+01  0.2321E+01
  -0.750  0.1305E+01  0.2386E+01
  -0.700  0.1643E+01  0.2468E+01
  -0.650  0.1647E+01  0.2551E+01
  -0.600  0.1242E+01  0.2613E+01
  -0.550  0.1113E+01  0.2668E+01
  -0.500  0.1031E+01  0.2720E+01
  -0.450  0.9455E+00  0.2767E+01
  -0.400  0.7730E+00  0.2806E+01
  -0.350  0.7413E+00  0.2843E+01
  -0.300  0.8001E+00  0.2883E+01
  -0.250  0.7319E+00  0.2920E+01
  -0.200  0.7170E+00  0.2955E+01
  -0.150  0.6039E+00  0.2986E+01
  -0.100  0.5650E+00  0.3014E+01
  -0.050  0.6099E+00  0.3044E+01
   0.000  0.6861E+00  0.3079E+01
   0.050  0.5084E+00  0.3104E+01
   0.100  0.5159E+00  0.3130E+01
   0.150  0.4899E+00  0.3154E+01
   0.200  0.5127E+00  0.3180E+01
   0.250  0.5224E+00  0.3206E+01
   0.300  0.4730E+00  0.3230E+01
   0.350  0.4832E+00  0.3254E+01
   0.400  0.3794E+00  0.3273E+01
   0.450  0.3563E+00  0.3291E+01
   0.500  0.5524E+00  0.3318E+01
   0.550  0.4181E+00  0.3339E+01
   0.600  0.3066E+00  0.3355E+01
   0.650  0.4398E+00  0.3377E+01
   0.700  0.3134E+00  0.3392E+01
   0.750  0.3447E+00  0.3409E+01
   0.800  0.4390E+00  0.3431E+01
   0.850  0.3271E+00  0.3448E+01
   0.900  0.2932E+00  0.3462E+01
   0.950  0.3748E+00  0.3481E+01
   1.000  0.2434E+00  0.3493E+01
   1.050  0.2573E+00  0.3506E+01
   1.100  0.4403E+00  0.3528E+01
   1.150  0.3013E+00  0.3543E+01
   1.200  0.1603E+00  0.3551E+01
   1.250  0.3234E+00  0.3567E+01
   1.300  0.2955E+00  0.3582E+01
   1.350  0.2007E+00  0.3592E+01
   1.400  0.2621E+00  0.3605E+01
   1.450  0.3218E+00  0.3621E+01
   1.500  0.2204E+00  0.3632E+01
   1.550  0.1880E+00  0.3642E+01
   1.600  0.2676E+00  0.3655E+01
   1.650  0.1996E+00  0.3665E+01
   1.700  0.2408E+00  0.3677E+01
   1.750  0.5020E+00  0.3702E+01
   1.800  0.6699E+00  0.3736E+01
   1.850  0.6801E+00  0.3770E+01
   1.900  0.8650E+00  0.3813E+01
   1.950  0.1085E+01  0.3867E+01
   2.000  0.1220E+01  0.3928E+01
   2.050  0.1174E+01  0.3987E+01
   2.100  0.1229E+01  0.4049E+01
   2.150  0.1257E+01  0.4111E+01
   2.200  0.1123E+01  0.4168E+01
   2.250  0.1066E+01  0.4221E+01
   2.300  0.1030E+01  0.4272E+01
   2.350  0.9601E+00  0.4320E+01
   2.400  0.1126E+01  0.4377E+01
   2.450  0.1120E+01  0.4433E+01
   2.500  0.9930E+00  0.4482E+01
   2.550  0.9257E+00  0.4529E+01
   2.600  0.1099E+01  0.4584E+01
   2.650  0.1193E+01  0.4643E+01
   2.700  0.1049E+01  0.4696E+01
   2.750  0.9518E+00  0.4743E+01
   2.800  0.1038E+01  0.4795E+01
   2.850  0.1221E+01  0.4856E+01
   2.900  0.1261E+01  0.4919E+01
   2.950  0.1151E+01  0.4977E+01
   3.000  0.1087E+01  0.5031E+01
   3.050  0.1221E+01  0.5092E+01
   3.100  0.1338E+01  0.5159E+01
   3.150  0.1267E+01  0.5223E+01
   3.200  0.1370E+01  0.5291E+01
   3.250  0.1591E+01  0.5371E+01
   3.300  0.1647E+01  0.5453E+01
   3.350  0.1548E+01  0.5530E+01
   3.400  0.1450E+01  0.5603E+01
   3.450  0.1402E+01  0.5673E+01
   3.500  0.1540E+01  0.5750E+01
   3.550  0.1474E+01  0.5824E+01
   3.600  0.1581E+01  0.5903E+01
   3.650  0.1391E+01  0.5972E+01
   3.700  0.1451E+01  0.6045E+01
   3.750  0.1500E+01  0.6120E+01
   3.800  0.1290E+01  0.6184E+01
   3.850  0.1284E+01  0.6248E+01
   3.900  0.1464E+01  0.6322E+01
   3.950  0.1505E+01  0.6397E+01
   4.000  0.1319E+01  0.6463E+01
   4.050  0.1256E+01  0.6526E+01
   4.100  0.1309E+01  0.6591E+01
   4.150  0.1361E+01  0.6659E+01
   4.200  0.1246E+01  0.6721E+01
   4.250  0.1377E+01  0.6790E+01
   4.300  0.1282E+01  0.6854E+01
   4.350  0.1149E+01  0.6912E+01
   4.400  0.1246E+01  0.6974E+01
   4.450  0.1265E+01  0.7037E+01
   4.500  0.1246E+01  0.7100E+01
   4.550  0.1218E+01  0.7161E+01
   4.600  0.1251E+01  0.7223E+01
   4.650  0.1049E+01  0.7275E+01
   4.700  0.1210E+01  0.7336E+01
   4.750  0.1171E+01  0.7395E+01
   4.800  0.1138E+01  0.7451E+01
   4.850  0.1094E+01  0.7506E+01
   4.900  0.9183E+00  0.7552E+01
   4.950  0.8539E+00  0.7595E+01
   5.000  0.8335E+00  0.7636E+01
   5.050  0.6641E+00  0.7670E+01
   5.100  0.6518E+00  0.7702E+01
   5.150  0.6204E+00  0.7733E+01
   5.200  0.5056E+00  0.7758E+01
   5.250  0.5918E+00  0.7788E+01
   5.300  0.4823E+00  0.7812E+01
   5.350  0.4887E+00  0.7837E+01
   5.400  0.4119E+00  0.7857E+01
   5.450  0.3687E+00  0.7876E+01
   5.500  0.3623E+00  0.7894E+01
   5.550  0.3241E+00  0.7910E+01
   5.600  0.3273E+00  0.7926E+01
   5.650  0.2788E+00  0.7940E+01
   5.700  0.2745E+00  0.7954E+01
   5.750  0.2142E+00  0.7965E+01
   5.800  0.1884E+00  0.7974E+01
   5.850  0.1650E+00  0.7982E+01
   5.900  0.1633E+00  0.7991E+01
   5.950  0.1094E+00  0.7996E+01
   6.000  0.5865E-01  0.7999E+01
   6.050  0.1927E-01  0.8000E+01
   6.100  0.1776E-02  0.8000E+01
   6.150  0.2947E-04  0.8000E+01
   6.200  0.7822E-07  0.8000E+01
   6.250  0.3202E-10  0.8000E+01
   6.300  0.1955E-14  0.8000E+01
   6.350  0.1053E-17  0.8000E+01
   6.400  0.6801E-13  0.8000E+01
   6.450  0.6073E-09  0.8000E+01
   6.500  0.7422E-06  0.8000E+01
   6.550  0.1279E-03  0.8000E+01
   6.600  0.3601E-02  0.8000E+01
   6.650  0.2638E-01  0.8002E+01
   6.700  0.7646E-01  0.8005E+01
   6.750  0.1262E+00  0.8012E+01
   6.800  0.1626E+00  0.8020E+01
   6.850  0.2338E+00  0.8031E+01
   6.900  0.2905E+00  0.8046E+01
   6.950  0.2947E+00  0.8061E+01
   7.000  0.3316E+00  0.8077E+01
   7.050  0.3749E+00  0.8096E+01
   7.100  0.3548E+00  0.8114E+01
   7.150  0.4792E+00  0.8138E+01
   7.200  0.4908E+00  0.8162E+01
   7.250  0.4942E+00  0.8187E+01
   7.300  0.5099E+00  0.8212E+01
   7.350  0.4784E+00  0.8236E+01
   7.400  0.5488E+00  0.8264E+01
   7.450  0.5875E+00  0.8293E+01
   7.500  0.6960E+00  0.8328E+01
   7.550  0.7033E+00  0.8363E+01
   7.600  0.7690E+00  0.8402E+01
   7.650  0.8175E+00  0.8443E+01
   7.700  0.8036E+00  0.8483E+01
   7.750  0.8618E+00  0.8526E+01
   7.800  0.9061E+00  0.8571E+01
   7.850  0.9264E+00  0.8617E+01
   7.900  0.9746E+00  0.8666E+01
   7.950  0.1145E+01  0.8723E+01
   8.000  0.1213E+01  0.8784E+01
   8.050  0.1263E+01  0.8847E+01
   8.100  0.1380E+01  0.8916E+01
   8.150  0.1312E+01  0.8982E+01
   8.200  0.1506E+01  0.9057E+01
   8.250  0.1777E+01  0.9146E+01
   8.300  0.1561E+01  0.9224E+01
   8.350  0.1482E+01  0.9298E+01
   8.400  0.1575E+01  0.9377E+01
   8.450  0.1662E+01  0.9460E+01
   8.500  0.1638E+01  0.9542E+01
   8.550  0.1424E+01  0.9613E+01
   8.600  0.1324E+01  0.9679E+01
   8.650  0.1383E+01  0.9748E+01
   8.700  0.1355E+01  0.9816E+01
   8.750  0.1153E+01  0.9874E+01
   8.800  0.1097E+01  0.9929E+01
   8.850  0.1007E+01  0.9979E+01
   8.900  0.9937E+00  0.1003E+02
   8.950  0.1231E+01  0.1009E+02
   9.000  0.1226E+01  0.1015E+02
   9.050  0.1031E+01  0.1020E+02
   9.100  0.1034E+01  0.1025E+02
   9.150  0.1010E+01  0.1031E+02
   9.200  0.1181E+01  0.1036E+02
   9.250  0.1718E+01  0.1045E+02
   9.300  0.2217E+01  0.1056E+02
   9.350  0.2361E+01  0.1068E+02
   9.400  0.2241E+01  0.1079E+02
   9.450  0.2017E+01  0.1089E+02
   9.500  0.1799E+01  0.1098E+02
   9.550  0.1885E+01  0.1108E+02
   9.600  0.1759E+01  0.1116E+02
   9.650  0.1577E+01  0.1124E+02
   9.700  0.1692E+01  0.1133E+02
   9.750  0.1561E+01  0.1141E+02
   9.800  0.1738E+01  0.1149E+02
   9.850  0.1809E+01  0.1158E+02
   9.900  0.1706E+01  0.1167E+02
   9.950  0.1506E+01  0.1174E+02
  10.000  0.1242E+01  0.1181E+02
  10.050  0.1139E+01  0.1186E+02
  10.100  0.1041E+01  0.1191E+02
  10.150  0.1109E+01  0.1197E+02
  10.200  0.1242E+01  0.1203E+02
  10.250  0.1318E+01  0.1210E+02
  10.300  0.1339E+01  0.1217E+02
  10.350  0.1467E+01  0.1224E+02
  10.400  0.1413E+01  0.1231E+02
  10.450  0.1114E+01  0.1236E+02
  10.500  0.1074E+01  0.1242E+02
  10.550  0.1210E+01  0.1248E+02
  10.600  0.1339E+01  0.1255E+02
  10.650  0.1302E+01  0.1261E+02
  10.700  0.1319E+01  0.1268E+02
  10.750  0.1323E+01  0.1274E+02
  10.800  0.1556E+01  0.1282E+02
  10.850  0.1556E+01  0.1290E+02
  10.900  0.1305E+01  0.1296E+02
  10.950  0.1171E+01  0.1302E+02
  11.000  0.1093E+01  0.1308E+02
  11.050  0.1025E+01  0.1313E+02
  11.100  0.1094E+01  0.1318E+02
  11.150  0.1238E+01  0.1325E+02
  11.200  0.1304E+01  0.1331E+02
  11.250  0.1191E+01  0.1337E+02
  11.300  0.1178E+01  0.1343E+02
  11.350  0.1365E+01  0.1350E+02
  11.400  0.1278E+01  0.1356E+02
  11.450  0.1203E+01  0.1362E+02
  11.500  0.1111E+01  0.1368E+02
  11.550  0.1026E+01  0.1373E+02
  11.600  0.1091E+01  0.1378E+02
  11.650  0.1141E+01  0.1384E+02
  11.700  0.1034E+01  0.1389E+02
  11.750  0.9507E+00  0.1394E+02
  11.800  0.1103E+01  0.1399E+02
  11.850  0.1264E+01  0.1406E+02
  11.900  0.1219E+01  0.1412E+02
  11.950  0.1152E+01  0.1418E+02
  12.000  0.1104E+01  0.1423E+02
  12.050  0.9596E+00  0.1428E+02
  12.100  0.9743E+00  0.1433E+02
  12.150  0.7885E+00  0.1437E+02
  12.200  0.8364E+00  0.1441E+02
  12.250  0.9206E+00  0.1445E+02
  12.300  0.7894E+00  0.1449E+02
  12.350  0.1011E+01  0.1454E+02
  12.400  0.1087E+01  0.1460E+02
  12.450  0.1227E+01  0.1466E+02
  12.500  0.1179E+01  0.1472E+02
  12.550  0.9394E+00  0.1477E+02
  12.600  0.9003E+00  0.1481E+02
  12.650  0.8798E+00  0.1486E+02
  12.700  0.7624E+00  0.1489E+02
  12.750  0.7711E+00  0.1493E+02
  12.800  0.7283E+00  0.1497E+02
  12.850  0.7069E+00  0.1500E+02
  12.900  0.6568E+00  0.1504E+02
  12.950  0.7349E+00  0.1507E+02
  13.000  0.8589E+00  0.1512E+02
  13.050  0.8954E+00  0.1516E+02
  13.100  0.1096E+01  0.1522E+02
  13.150  0.9890E+00  0.1527E+02
  13.200  0.6394E+00  0.1530E+02
  13.250  0.4979E+00  0.1532E+02
  13.300  0.4246E+00  0.1534E+02
  13.350  0.5236E+00  0.1537E+02
  13.400  0.5367E+00  0.1540E+02
  13.450  0.4231E+00  0.1542E+02
  13.500  0.4693E+00  0.1544E+02
  13.550  0.5181E+00  0.1547E+02
  13.600  0.6241E+00  0.1550E+02
  13.650  0.6569E+00  0.1553E+02
  13.700  0.8273E+00  0.1557E+02
  13.750  0.7249E+00  0.1561E+02
  13.800  0.4848E+00  0.1563E+02
  13.850  0.5424E+00  0.1566E+02
  13.900  0.5239E+00  0.1569E+02
  13.950  0.3882E+00  0.1571E+02
  14.000  0.3556E+00  0.1572E+02
  14.050  0.3675E+00  0.1574E+02
  14.100  0.3497E+00  0.1576E+02
  14.150  0.4290E+00  0.1578E+02
  14.200  0.4117E+00  0.1580E+02
  14.250  0.4644E+00  0.1582E+02
  14.300  0.4142E+00  0.1585E+02
  14.350  0.1760E+00  0.1585E+02
  14.400  0.6604E-01  0.1586E+02
  14.450  0.9288E-01  0.1586E+02
  14.500  0.1573E+00  0.1587E+02
  14.550  0.1232E+00  0.1588E+02
  14.600  0.6971E-01  0.1588E+02
  14.650  0.1104E+00  0.1589E+02
  14.700  0.1800E+00  0.1589E+02
  14.750  0.2860E+00  0.1591E+02
  14.800  0.2912E+00  0.1592E+02
  14.850  0.2588E+00  0.1594E+02
  14.900  0.1080E+00  0.1594E+02
  14.950  0.4731E-01  0.1594E+02
  15.000  0.3410E-01  0.1595E+02
  15.050  0.5469E-01  0.1595E+02
  15.100  0.8853E-01  0.1595E+02
  15.150  0.9478E-01  0.1596E+02
  15.200  0.7416E-01  0.1596E+02
  15.250  0.7453E-01  0.1596E+02
  15.300  0.1189E+00  0.1597E+02
  15.350  0.1685E+00  0.1598E+02
  15.400  0.1155E+00  0.1598E+02
  15.450  0.4376E-01  0.1599E+02
  15.500  0.1253E-01  0.1599E+02
  15.550  0.1671E-01  0.1599E+02
  15.600  0.1439E-01  0.1599E+02
  15.650  0.5266E-01  0.1599E+02
  15.700  0.4876E-01  0.1599E+02
  15.750  0.2218E-01  0.1600E+02
  15.800  0.4927E-01  0.1600E+02
  15.850  0.3311E-01  0.1600E+02
  15.900  0.4346E-02  0.1600E+02
  15.950  0.3087E-02  0.1600E+02
  16.000  0.3412E-02  0.1600E+02
  16.050  0.5231E-03  0.1600E+02
  16.100  0.1085E-04  0.1600E+02
  16.150  0.3047E-07  0.1600E+02
  16.200  0.1158E-10  0.1600E+02
  16.250  0.5955E-15  0.1600E+02
  16.300  0.4144E-20  0.1600E+02
  16.350  0.3904E-26  0.1600E+02
  16.400  0.4976E-33  0.1600E+02
  16.450  0.8585E-41  0.1600E+02
  16.500  0.2004E-49  0.1600E+02
  16.550  0.6334E-59  0.1600E+02
  16.600  0.2708E-69  0.1600E+02
  16.650  0.1568E-80  0.1600E+02
  16.700  0.2498E-84  0.1600E+02
  16.750  0.2498E-84  0.1600E+02
  16.800  0.2498E-84  0.1600E+02
  16.850  0.2498E-84  0.1600E+02
  16.900  0.2498E-84  0.1600E+02
  16.950  0.2498E-84  0.1600E+02
  17.000  0.2498E-84  0.1600E+02
  17.050  0.2498E-84  0.1600E+02
  17.100  0.2498E-84  0.1600E+02
  17.150  0.2498E-84  0.1600E+02
  17.200  0.2498E-84  0.1600E+02
  17.250  0.2498E-84  0.1600E+02
  17.300  0.2498E-84  0.1600E+02
  17.350  0.2498E-84  0.1600E+02
  17.400  0.2498E-84  0.1600E+02
  17.450  0.2498E-84  0.1600E+02
  17.500  0.2498E-84  0.1600E+02
  17.550  0.2498E-84  0.1600E+02
  17.600  0.2498E-84  0.1600E+02
  17.650  0.2498E-84  0.1600E+02
  17.700  0.2498E-84  0.1600E+02
  17.750  0.2498E-84  0.1600E+02
  17.800  0.2498E-84  0.1600E+02
  17.850  0.2498E-84  0.1600E+02
  17.900  0.2498E-84  0.1600E+02
  17.950  0.2498E-84  0.1600E+02
  18.000  0.2498E-84  0.1600E+02
  18.050  0.2498E-84  0.1600E+02
  18.100  0.2498E-84  0.1600E+02
  18.150  0.2498E-84  0.1600E+02
  18.200  0.2498E-84  0.1600E+02
  18.250  0.2498E-84  0.1600E+02
  18.300  0.2498E-84  0.1600E+02
  18.350  0.2498E-84  0.1600E+02
  18.400  0.2498E-84  0.1600E+02
  18.450  0.2498E-84  0.1600E+02
  18.500  0.2498E-84  0.1600E+02
  18.550  0.2498E-84  0.1600E+02
  18.600  0.2498E-84  0.1600E+02
  18.650  0.2498E-84  0.1600E+02
  18.700  0.2498E-84  0.1600E+02
  18.750  0.2498E-84  0.1600E+02
  18.800  0.2498E-84  0.1600E+02
  18.850  0.2498E-84  0.1600E+02
  18.900  0.2498E-84  0.1600E+02
  18.950  0.2498E-84  0.1600E+02
  19.000  0.2498E-84  0.1600E+02
  19.050  0.2498E-84  0.1600E+02
  19.100  0.2498E-84  0.1600E+02
  19.150  0.2498E-84  0.1600E+02
  19.200  0.2498E-84  0.1600E+02
  19.250  0.2498E-84  0.1600E+02
  19.300  0.2498E-84  0.1600E+02
  19.350  0.2498E-84  0.1600E+02
  19.400  0.2498E-84  0.1600E+02
  19.450  0.2498E-84  0.1600E+02
  19.500  0.2498E-84  0.1600E+02
  19.550  0.2498E-84  0.1600E+02
  19.600  0.2498E-84  0.1600E+02
  19.650  0.2498E-84  0.1600E+02
  19.700  0.2498E-84  0.1600E+02
  19.750  0.2498E-84  0.1600E+02
  19.800  0.2498E-84  0.1600E+02
  19.850  0.2498E-84  0.1600E+02
  19.900  0.2498E-84  0.1600E+02
  19.950  0.2498E-84  0.1600E+02
  20.000  0.2498E-84  0.1600E+02
