#  E (eV)   dos(E)     Int dos(E) EFermi =    7.933 eV
 -10.000  0.2984E-51  0.1492E-52
  -9.950  0.1429E-50  0.8637E-52
  -9.900  0.6771E-50  0.4249E-51
  -9.850  0.3174E-49  0.2012E-50
  -9.800  0.1472E-48  0.9371E-50
  -9.750  0.6752E-48  0.4313E-49
  -9.700  0.3064E-47  0.1963E-48
  -9.650  0.1376E-46  0.8842E-48
  -9.600  0.6110E-46  0.3939E-47
  -9.550  0.2685E-45  0.1736E-46
  -9.500  0.1167E-44  0.7572E-46
  -9.450  0.5019E-44  0.3267E-45
  -9.400  0.2135E-43  0.1394E-44
  -9.350  0.8986E-43  0.5887E-44
  -9.300  0.3741E-42  0.2459E-43
  -9.250  0.1541E-41  0.1016E-42
  -9.200  0.6280E-41  0.4156E-42
  -9.150  0.2532E-40  0.1681E-41
  -9.100  0.1010E-39  0.6730E-41
  -9.050  0.3983E-39  0.2665E-40
  -9.000  0.1555E-38  0.1044E-39
  -8.950  0.6003E-38  0.4046E-39
  -8.900  0.2293E-37  0.1551E-38
  -8.850  0.8667E-37  0.5885E-38
  -8.800  0.3240E-36  0.2209E-37
  -8.750  0.1198E-35  0.8201E-37
  -8.700  0.4385E-35  0.3013E-36
  -8.650  0.1587E-34  0.1095E-35
  -8.600  0.5685E-34  0.3937E-35
  -8.550  0.2014E-33  0.1401E-34
  -8.500  0.7059E-33  0.4930E-34
  -8.450  0.2448E-32  0.1717E-33
  -8.400  0.8396E-32  0.5915E-33
  -8.350  0.2849E-31  0.2016E-32
  -8.300  0.9566E-31  0.6799E-32
  -8.250  0.3177E-30  0.2269E-31
  -8.200  0.1044E-29  0.7489E-31
  -8.150  0.3394E-29  0.2446E-30
  -8.100  0.1092E-28  0.7903E-30
  -8.050  0.3473E-28  0.2527E-29
  -8.000  0.1093E-27  0.7992E-29
  -7.950  0.3404E-27  0.2501E-28
  -7.900  0.1049E-26  0.7744E-28
  -7.850  0.3196E-26  0.2372E-27
  -7.800  0.9636E-26  0.7191E-27
  -7.750  0.2875E-25  0.2156E-26
  -7.700  0.8483E-25  0.6398E-26
  -7.650  0.2477E-24  0.1878E-25
  -7.600  0.7154E-24  0.5455E-25
  -7.550  0.2044E-23  0.1568E-24
  -7.500  0.5779E-23  0.4457E-24
  -7.450  0.1616E-22  0.1254E-23
  -7.400  0.4472E-22  0.3490E-23
  -7.350  0.1224E-21  0.9612E-23
  -7.300  0.3316E-21  0.2619E-22
  -7.250  0.8884E-21  0.7061E-22
  -7.200  0.2355E-20  0.1884E-21
  -7.150  0.6176E-20  0.4972E-21
  -7.100  0.1602E-19  0.1298E-20
  -7.050  0.4113E-19  0.3355E-20
  -7.000  0.1045E-18  0.8578E-20
  -6.950  0.2624E-18  0.2170E-19
  -6.900  0.6524E-18  0.5432E-19
  -6.850  0.1604E-17  0.1345E-18
  -6.800  0.3903E-17  0.3297E-18
  -6.750  0.9396E-17  0.7995E-18
  -6.700  0.2238E-16  0.1918E-17
  -6.650  0.5272E-16  0.4554E-17
  -6.600  0.1229E-15  0.1070E-16
  -6.550  0.2834E-15  0.2487E-16
  -6.500  0.6467E-15  0.5721E-16
  -6.450  0.1460E-14  0.1302E-15
  -6.400  0.3261E-14  0.2932E-15
  -6.350  0.7206E-14  0.6535E-15
  -6.300  0.1575E-13  0.1441E-14
  -6.250  0.3408E-13  0.3145E-14
  -6.200  0.7293E-13  0.6791E-14
  -6.150  0.1544E-12  0.1451E-13
  -6.100  0.3235E-12  0.3069E-13
  -6.050  0.6706E-12  0.6422E-13
  -6.000  0.1375E-11  0.1330E-12
  -5.950  0.2790E-11  0.2725E-12
  -5.900  0.5602E-11  0.5526E-12
  -5.850  0.1113E-10  0.1109E-11
  -5.800  0.2187E-10  0.2202E-11
  -5.750  0.4253E-10  0.4329E-11
  -5.700  0.8182E-10  0.8420E-11
  -5.650  0.1558E-09  0.1621E-10
  -5.600  0.2934E-09  0.3088E-10
  -5.550  0.5468E-09  0.5822E-10
  -5.500  0.1008E-08  0.1086E-09
  -5.450  0.1840E-08  0.2006E-09
  -5.400  0.3322E-08  0.3668E-09
  -5.350  0.5935E-08  0.6635E-09
  -5.300  0.1049E-07  0.1188E-08
  -5.250  0.1835E-07  0.2106E-08
  -5.200  0.3177E-07  0.3694E-08
  -5.150  0.5441E-07  0.6414E-08
  -5.100  0.9221E-07  0.1102E-07
  -5.050  0.1546E-06  0.1876E-07
  -5.000  0.2566E-06  0.3159E-07
  -4.950  0.4215E-06  0.5266E-07
  -4.900  0.6849E-06  0.8691E-07
  -4.850  0.1102E-05  0.1420E-06
  -4.800  0.1753E-05  0.2296E-06
  -4.750  0.2761E-05  0.3677E-06
  -4.700  0.4304E-05  0.5829E-06
  -4.650  0.6640E-05  0.9149E-06
  -4.600  0.1014E-04  0.1422E-05
  -4.550  0.1532E-04  0.2188E-05
  -4.500  0.2291E-04  0.3333E-05
  -4.450  0.3391E-04  0.5029E-05
  -4.400  0.4968E-04  0.7513E-05
  -4.350  0.7204E-04  0.1111E-04
  -4.300  0.1034E-03  0.1628E-04
  -4.250  0.1469E-03  0.2363E-04
  -4.200  0.2066E-03  0.3396E-04
  -4.150  0.2877E-03  0.4835E-04
  -4.100  0.3966E-03  0.6818E-04
  -4.050  0.5412E-03  0.9523E-04
  -4.000  0.7311E-03  0.1318E-03
  -3.950  0.9780E-03  0.1807E-03
  -3.900  0.1295E-02  0.2455E-03
  -3.850  0.1699E-02  0.3304E-03
  -3.800  0.2206E-02  0.4407E-03
  -3.750  0.2838E-02  0.5826E-03
  -3.700  0.3615E-02  0.7634E-03
  -3.650  0.4561E-02  0.9914E-03
  -3.600  0.5701E-02  0.1276E-02
  -3.550  0.7058E-02  0.1629E-02
  -3.500  0.8658E-02  0.2062E-02
  -3.450  0.1052E-01  0.2588E-02
  -3.400  0.1267E-01  0.3222E-02
  -3.350  0.1513E-01  0.3978E-02
  -3.300  0.1790E-01  0.4873E-02
  -3.250  0.2099E-01  0.5923E-02
  -3.200  0.2441E-01  0.7143E-02
  -3.150  0.2815E-01  0.8551E-02
  -3.100  0.3219E-01  0.1016E-01
  -3.050  0.3653E-01  0.1199E-01
  -3.000  0.4112E-01  0.1404E-01
  -2.950  0.4594E-01  0.1634E-01
  -2.900  0.5094E-01  0.1889E-01
  -2.850  0.5609E-01  0.2169E-01
  -2.800  0.6134E-01  0.2476E-01
  -2.750  0.6663E-01  0.2809E-01
  -2.700  0.7193E-01  0.3169E-01
  -2.650  0.7718E-01  0.3555E-01
  -2.600  0.8234E-01  0.3966E-01
  -2.550  0.8739E-01  0.4403E-01
  -2.500  0.9227E-01  0.4865E-01
  -2.450  0.9697E-01  0.5349E-01
  -2.400  0.1015E+00  0.5857E-01
  -2.350  0.1058E+00  0.6386E-01
  -2.300  0.1098E+00  0.6935E-01
  -2.250  0.1137E+00  0.7503E-01
  -2.200  0.1173E+00  0.8090E-01
  -2.150  0.1208E+00  0.8694E-01
  -2.100  0.1240E+00  0.9314E-01
  -2.050  0.1271E+00  0.9949E-01
  -2.000  0.1300E+00  0.1060E+00
  -1.950  0.1328E+00  0.1126E+00
  -1.900  0.1355E+00  0.1194E+00
  -1.850  0.1381E+00  0.1263E+00
  -1.800  0.1405E+00  0.1333E+00
  -1.750  0.1429E+00  0.1405E+00
  -1.700  0.1453E+00  0.1478E+00
  -1.650  0.1476E+00  0.1551E+00
  -1.600  0.1498E+00  0.1626E+00
  -1.550  0.1520E+00  0.1702E+00
  -1.500  0.1542E+00  0.1779E+00
  -1.450  0.1564E+00  0.1858E+00
  -1.400  0.1585E+00  0.1937E+00
  -1.350  0.1607E+00  0.2017E+00
  -1.300  0.1628E+00  0.2099E+00
  -1.250  0.1649E+00  0.2181E+00
  -1.200  0.1669E+00  0.2264E+00
  -1.150  0.1690E+00  0.2349E+00
  -1.100  0.1710E+00  0.2434E+00
  -1.050  0.1730E+00  0.2521E+00
  -1.000  0.1751E+00  0.2608E+00
  -0.950  0.1770E+00  0.2697E+00
  -0.900  0.1790E+00  0.2787E+00
  -0.850  0.1810E+00  0.2877E+00
  -0.800  0.1829E+00  0.2968E+00
  -0.750  0.1849E+00  0.3061E+00
  -0.700  0.1868E+00  0.3154E+00
  -0.650  0.1887E+00  0.3249E+00
  -0.600  0.1906E+00  0.3344E+00
  -0.550  0.1925E+00  0.3440E+00
  -0.500  0.1943E+00  0.3537E+00
  -0.450  0.1962E+00  0.3635E+00
  -0.400  0.1980E+00  0.3734E+00
  -0.350  0.1998E+00  0.3834E+00
  -0.300  0.2016E+00  0.3935E+00
  -0.250  0.2034E+00  0.4037E+00
  -0.200  0.2052E+00  0.4140E+00
  -0.150  0.2070E+00  0.4243E+00
  -0.100  0.2088E+00  0.4347E+00
  -0.050  0.2105E+00  0.4453E+00
   0.000  0.2123E+00  0.4559E+00
   0.050  0.2140E+00  0.4666E+00
   0.100  0.2157E+00  0.4774E+00
   0.150  0.2174E+00  0.4882E+00
   0.200  0.2191E+00  0.4992E+00
   0.250  0.2208E+00  0.5102E+00
   0.300  0.2225E+00  0.5214E+00
   0.350  0.2242E+00  0.5326E+00
   0.400  0.2259E+00  0.5439E+00
   0.450  0.2275E+00  0.5552E+00
   0.500  0.2292E+00  0.5667E+00
   0.550  0.2308E+00  0.5782E+00
   0.600  0.2324E+00  0.5899E+00
   0.650  0.2341E+00  0.6016E+00
   0.700  0.2357E+00  0.6133E+00
   0.750  0.2373E+00  0.6252E+00
   0.800  0.2389E+00  0.6372E+00
   0.850  0.2405E+00  0.6492E+00
   0.900  0.2421E+00  0.6613E+00
   0.950  0.2437E+00  0.6735E+00
   1.000  0.2452E+00  0.6857E+00
   1.050  0.2468E+00  0.6981E+00
   1.100  0.2484E+00  0.7105E+00
   1.150  0.2499E+00  0.7230E+00
   1.200  0.2515E+00  0.7356E+00
   1.250  0.2530E+00  0.7482E+00
   1.300  0.2546E+00  0.7609E+00
   1.350  0.2561E+00  0.7737E+00
   1.400  0.2576E+00  0.7866E+00
   1.450  0.2591E+00  0.7996E+00
   1.500  0.2607E+00  0.8126E+00
   1.550  0.2622E+00  0.8257E+00
   1.600  0.2637E+00  0.8389E+00
   1.650  0.2652E+00  0.8522E+00
   1.700  0.2667E+00  0.8655E+00
   1.750  0.2682E+00  0.8789E+00
   1.800  0.2697E+00  0.8924E+00
   1.850  0.2712E+00  0.9060E+00
   1.900  0.2727E+00  0.9196E+00
   1.950  0.2742E+00  0.9333E+00
   2.000  0.2757E+00  0.9471E+00
   2.050  0.2772E+00  0.9609E+00
   2.100  0.2786E+00  0.9749E+00
   2.150  0.2801E+00  0.9889E+00
   2.200  0.2816E+00  0.1003E+01
   2.250  0.2831E+00  0.1017E+01
   2.300  0.2846E+00  0.1031E+01
   2.350  0.2861E+00  0.1046E+01
   2.400  0.2876E+00  0.1060E+01
   2.450  0.2890E+00  0.1074E+01
   2.500  0.2905E+00  0.1089E+01
   2.550  0.2920E+00  0.1104E+01
   2.600  0.2935E+00  0.1118E+01
   2.650  0.2950E+00  0.1133E+01
   2.700  0.2965E+00  0.1148E+01
   2.750  0.2980E+00  0.1163E+01
   2.800  0.2995E+00  0.1178E+01
   2.850  0.3010E+00  0.1193E+01
   2.900  0.3025E+00  0.1208E+01
   2.950  0.3040E+00  0.1223E+01
   3.000  0.3054E+00  0.1238E+01
   3.050  0.3069E+00  0.1254E+01
   3.100  0.3083E+00  0.1269E+01
   3.150  0.3098E+00  0.1285E+01
   3.200  0.3112E+00  0.1300E+01
   3.250  0.3125E+00  0.1316E+01
   3.300  0.3139E+00  0.1332E+01
   3.350  0.3152E+00  0.1347E+01
   3.400  0.3166E+00  0.1363E+01
   3.450  0.3179E+00  0.1379E+01
   3.500  0.3192E+00  0.1395E+01
   3.550  0.3204E+00  0.1411E+01
   3.600  0.3217E+00  0.1427E+01
   3.650  0.3230E+00  0.1443E+01
   3.700  0.3242E+00  0.1459E+01
   3.750  0.3255E+00  0.1476E+01
   3.800  0.3268E+00  0.1492E+01
   3.850  0.3282E+00  0.1508E+01
   3.900  0.3295E+00  0.1525E+01
   3.950  0.3310E+00  0.1541E+01
   4.000  0.3324E+00  0.1558E+01
   4.050  0.3339E+00  0.1575E+01
   4.100  0.3355E+00  0.1592E+01
   4.150  0.3371E+00  0.1608E+01
   4.200  0.3388E+00  0.1625E+01
   4.250  0.3406E+00  0.1642E+01
   4.300  0.3424E+00  0.1660E+01
   4.350  0.3443E+00  0.1677E+01
   4.400  0.3462E+00  0.1694E+01
   4.450  0.3482E+00  0.1711E+01
   4.500  0.3502E+00  0.1729E+01
   4.550  0.3523E+00  0.1747E+01
   4.600  0.3544E+00  0.1764E+01
   4.650  0.3565E+00  0.1782E+01
   4.700  0.3585E+00  0.1800E+01
   4.750  0.3606E+00  0.1818E+01
   4.800  0.3626E+00  0.1836E+01
   4.850  0.3646E+00  0.1854E+01
   4.900  0.3665E+00  0.1873E+01
   4.950  0.3682E+00  0.1891E+01
   5.000  0.3699E+00  0.1910E+01
   5.050  0.3713E+00  0.1928E+01
   5.100  0.3726E+00  0.1947E+01
   5.150  0.3737E+00  0.1966E+01
   5.200  0.3745E+00  0.1984E+01
   5.250  0.3751E+00  0.2003E+01
   5.300  0.3755E+00  0.2022E+01
   5.350  0.3755E+00  0.2041E+01
   5.400  0.3753E+00  0.2059E+01
   5.450  0.3748E+00  0.2078E+01
   5.500  0.3741E+00  0.2097E+01
   5.550  0.3732E+00  0.2115E+01
   5.600  0.3720E+00  0.2134E+01
   5.650  0.3707E+00  0.2153E+01
   5.700  0.3693E+00  0.2171E+01
   5.750  0.3677E+00  0.2189E+01
   5.800  0.3661E+00  0.2208E+01
   5.850  0.3645E+00  0.2226E+01
   5.900  0.3630E+00  0.2244E+01
   5.950  0.3615E+00  0.2262E+01
   6.000  0.3602E+00  0.2280E+01
   6.050  0.3590E+00  0.2298E+01
   6.100  0.3581E+00  0.2316E+01
   6.150  0.3574E+00  0.2334E+01
   6.200  0.3569E+00  0.2352E+01
   6.250  0.3568E+00  0.2370E+01
   6.300  0.3569E+00  0.2387E+01
   6.350  0.3574E+00  0.2405E+01
   6.400  0.3582E+00  0.2423E+01
   6.450  0.3592E+00  0.2441E+01
   6.500  0.3605E+00  0.2459E+01
   6.550  0.3621E+00  0.2477E+01
   6.600  0.3639E+00  0.2496E+01
   6.650  0.3658E+00  0.2514E+01
   6.700  0.3679E+00  0.2532E+01
   6.750  0.3701E+00  0.2551E+01
   6.800  0.3724E+00  0.2569E+01
   6.850  0.3746E+00  0.2588E+01
   6.900  0.3768E+00  0.2607E+01
   6.950  0.3789E+00  0.2626E+01
   7.000  0.3808E+00  0.2645E+01
   7.050  0.3826E+00  0.2664E+01
   7.100  0.3843E+00  0.2683E+01
   7.150  0.3858E+00  0.2703E+01
   7.200  0.3870E+00  0.2722E+01
   7.250  0.3881E+00  0.2741E+01
   7.300  0.3890E+00  0.2761E+01
   7.350  0.3898E+00  0.2780E+01
   7.400  0.3904E+00  0.2800E+01
   7.450  0.3910E+00  0.2819E+01
   7.500  0.3915E+00  0.2839E+01
   7.550  0.3920E+00  0.2858E+01
   7.600  0.3926E+00  0.2878E+01
   7.650  0.3932E+00  0.2898E+01
   7.700  0.3939E+00  0.2917E+01
   7.750  0.3948E+00  0.2937E+01
   7.800  0.3958E+00  0.2957E+01
   7.850  0.3969E+00  0.2977E+01
   7.900  0.3983E+00  0.2997E+01
   7.950  0.3997E+00  0.3017E+01
   8.000  0.4013E+00  0.3037E+01
   8.050  0.4031E+00  0.3057E+01
   8.100  0.4049E+00  0.3077E+01
   8.150  0.4067E+00  0.3098E+01
   8.200  0.4086E+00  0.3118E+01
   8.250  0.4105E+00  0.3138E+01
   8.300  0.4123E+00  0.3159E+01
   8.350  0.4140E+00  0.3180E+01
   8.400  0.4156E+00  0.3201E+01
   8.450  0.4171E+00  0.3221E+01
   8.500  0.4185E+00  0.3242E+01
   8.550  0.4197E+00  0.3263E+01
   8.600  0.4208E+00  0.3284E+01
   8.650  0.4217E+00  0.3305E+01
   8.700  0.4225E+00  0.3327E+01
   8.750  0.4231E+00  0.3348E+01
   8.800  0.4237E+00  0.3369E+01
   8.850  0.4242E+00  0.3390E+01
   8.900  0.4247E+00  0.3411E+01
   8.950  0.4251E+00  0.3433E+01
   9.000  0.4255E+00  0.3454E+01
   9.050  0.4260E+00  0.3475E+01
   9.100  0.4265E+00  0.3497E+01
   9.150  0.4270E+00  0.3518E+01
   9.200  0.4276E+00  0.3539E+01
   9.250  0.4283E+00  0.3561E+01
   9.300  0.4291E+00  0.3582E+01
   9.350  0.4299E+00  0.3604E+01
   9.400  0.4308E+00  0.3625E+01
   9.450  0.4318E+00  0.3647E+01
   9.500  0.4329E+00  0.3668E+01
   9.550  0.4341E+00  0.3690E+01
   9.600  0.4353E+00  0.3712E+01
   9.650  0.4365E+00  0.3734E+01
   9.700  0.4378E+00  0.3756E+01
   9.750  0.4391E+00  0.3778E+01
   9.800  0.4404E+00  0.3800E+01
   9.850  0.4417E+00  0.3822E+01
   9.900  0.4430E+00  0.3844E+01
   9.950  0.4443E+00  0.3866E+01
  10.000  0.4456E+00  0.3888E+01
  10.050  0.4468E+00  0.3911E+01
  10.100  0.4481E+00  0.3933E+01
  10.150  0.4493E+00  0.3955E+01
  10.200  0.4506E+00  0.3978E+01
  10.250  0.4518E+00  0.4001E+01
  10.300  0.4530E+00  0.4023E+01
  10.350  0.4542E+00  0.4046E+01
  10.400  0.4553E+00  0.4069E+01
  10.450  0.4565E+00  0.4092E+01
  10.500  0.4576E+00  0.4114E+01
  10.550  0.4588E+00  0.4137E+01
  10.600  0.4599E+00  0.4160E+01
  10.650  0.4611E+00  0.4183E+01
  10.700  0.4622E+00  0.4207E+01
  10.750  0.4634E+00  0.4230E+01
  10.800  0.4645E+00  0.4253E+01
  10.850  0.4657E+00  0.4276E+01
  10.900  0.4668E+00  0.4300E+01
  10.950  0.4680E+00  0.4323E+01
  11.000  0.4691E+00  0.4346E+01
  11.050  0.4703E+00  0.4370E+01
  11.100  0.4715E+00  0.4394E+01
  11.150  0.4727E+00  0.4417E+01
  11.200  0.4739E+00  0.4441E+01
  11.250  0.4751E+00  0.4465E+01
  11.300  0.4763E+00  0.4488E+01
  11.350  0.4775E+00  0.4512E+01
  11.400  0.4787E+00  0.4536E+01
  11.450  0.4799E+00  0.4560E+01
  11.500  0.4812E+00  0.4584E+01
  11.550  0.4824E+00  0.4608E+01
  11.600  0.4837E+00  0.4633E+01
  11.650  0.4850E+00  0.4657E+01
  11.700  0.4862E+00  0.4681E+01
  11.750  0.4875E+00  0.4706E+01
  11.800  0.4889E+00  0.4730E+01
  11.850  0.4902E+00  0.4754E+01
  11.900  0.4915E+00  0.4779E+01
  11.950  0.4929E+00  0.4804E+01
  12.000  0.4943E+00  0.4828E+01
  12.050  0.4957E+00  0.4853E+01
  12.100  0.4971E+00  0.4878E+01
  12.150  0.4986E+00  0.4903E+01
  12.200  0.5001E+00  0.4928E+01
  12.250  0.5016E+00  0.4953E+01
  12.300  0.5031E+00  0.4978E+01
  12.350  0.5047E+00  0.5003E+01
  12.400  0.5064E+00  0.5029E+01
  12.450  0.5081E+00  0.5054E+01
  12.500  0.5098E+00  0.5080E+01
  12.550  0.5116E+00  0.5105E+01
  12.600  0.5135E+00  0.5131E+01
  12.650  0.5154E+00  0.5157E+01
  12.700  0.5174E+00  0.5183E+01
  12.750  0.5195E+00  0.5209E+01
  12.800  0.5217E+00  0.5235E+01
  12.850  0.5240E+00  0.5261E+01
  12.900  0.5263E+00  0.5287E+01
  12.950  0.5288E+00  0.5314E+01
  13.000  0.5314E+00  0.5340E+01
  13.050  0.5341E+00  0.5367E+01
  13.100  0.5369E+00  0.5394E+01
  13.150  0.5398E+00  0.5421E+01
  13.200  0.5428E+00  0.5448E+01
  13.250  0.5458E+00  0.5475E+01
  13.300  0.5489E+00  0.5503E+01
  13.350  0.5519E+00  0.5530E+01
  13.400  0.5550E+00  0.5558E+01
  13.450  0.5579E+00  0.5586E+01
  13.500  0.5608E+00  0.5614E+01
  13.550  0.5635E+00  0.5642E+01
  13.600  0.5660E+00  0.5670E+01
  13.650  0.5683E+00  0.5699E+01
  13.700  0.5703E+00  0.5727E+01
  13.750  0.5720E+00  0.5756E+01
  13.800  0.5733E+00  0.5785E+01
  13.850  0.5743E+00  0.5813E+01
  13.900  0.5749E+00  0.5842E+01
  13.950  0.5750E+00  0.5871E+01
  14.000  0.5747E+00  0.5899E+01
  14.050  0.5741E+00  0.5928E+01
  14.100  0.5731E+00  0.5957E+01
  14.150  0.5717E+00  0.5985E+01
  14.200  0.5700E+00  0.6014E+01
  14.250  0.5680E+00  0.6042E+01
  14.300  0.5658E+00  0.6071E+01
  14.350  0.5635E+00  0.6099E+01
  14.400  0.5610E+00  0.6127E+01
  14.450  0.5584E+00  0.6155E+01
  14.500  0.5558E+00  0.6183E+01
  14.550  0.5533E+00  0.6210E+01
  14.600  0.5507E+00  0.6238E+01
  14.650  0.5483E+00  0.6265E+01
  14.700  0.5460E+00  0.6292E+01
  14.750  0.5438E+00  0.6320E+01
  14.800  0.5417E+00  0.6347E+01
  14.850  0.5399E+00  0.6374E+01
  14.900  0.5382E+00  0.6401E+01
  14.950  0.5366E+00  0.6427E+01
  15.000  0.5353E+00  0.6454E+01
  15.050  0.5341E+00  0.6481E+01
  15.100  0.5330E+00  0.6508E+01
  15.150  0.5322E+00  0.6534E+01
  15.200  0.5314E+00  0.6561E+01
  15.250  0.5308E+00  0.6587E+01
  15.300  0.5303E+00  0.6614E+01
  15.350  0.5299E+00  0.6640E+01
  15.400  0.5296E+00  0.6667E+01
  15.450  0.5294E+00  0.6693E+01
  15.500  0.5293E+00  0.6720E+01
  15.550  0.5292E+00  0.6746E+01
  15.600  0.5291E+00  0.6773E+01
  15.650  0.5292E+00  0.6799E+01
  15.700  0.5292E+00  0.6826E+01
  15.750  0.5293E+00  0.6852E+01
  15.800  0.5293E+00  0.6878E+01
  15.850  0.5294E+00  0.6905E+01
  15.900  0.5295E+00  0.6931E+01
  15.950  0.5296E+00  0.6958E+01
  16.000  0.5297E+00  0.6984E+01
  16.050  0.5298E+00  0.7011E+01
  16.100  0.5298E+00  0.7037E+01
  16.150  0.5299E+00  0.7064E+01
  16.200  0.5300E+00  0.7090E+01
  16.250  0.5300E+00  0.7117E+01
  16.300  0.5301E+00  0.7143E+01
  16.350  0.5301E+00  0.7170E+01
  16.400  0.5302E+00  0.7196E+01
  16.450  0.5303E+00  0.7223E+01
  16.500  0.5304E+00  0.7249E+01
  16.550  0.5305E+00  0.7276E+01
  16.600  0.5307E+00  0.7302E+01
  16.650  0.5309E+00  0.7329E+01
  16.700  0.5312E+00  0.7356E+01
  16.750  0.5316E+00  0.7382E+01
  16.800  0.5320E+00  0.7409E+01
  16.850  0.5326E+00  0.7435E+01
  16.900  0.5332E+00  0.7462E+01
  16.950  0.5340E+00  0.7489E+01
  17.000  0.5348E+00  0.7515E+01
  17.050  0.5358E+00  0.7542E+01
  17.100  0.5368E+00  0.7569E+01
  17.150  0.5380E+00  0.7596E+01
  17.200  0.5393E+00  0.7623E+01
  17.250  0.5407E+00  0.7650E+01
  17.300  0.5422E+00  0.7677E+01
  17.350  0.5437E+00  0.7704E+01
  17.400  0.5453E+00  0.7732E+01
  17.450  0.5470E+00  0.7759E+01
  17.500  0.5487E+00  0.7786E+01
  17.550  0.5504E+00  0.7814E+01
  17.600  0.5521E+00  0.7841E+01
  17.650  0.5538E+00  0.7869E+01
  17.700  0.5555E+00  0.7897E+01
  17.750  0.5571E+00  0.7925E+01
  17.800  0.5588E+00  0.7953E+01
  17.850  0.5603E+00  0.7981E+01
  17.900  0.5619E+00  0.8009E+01
  17.950  0.5634E+00  0.8037E+01
  18.000  0.5649E+00  0.8065E+01
  18.050  0.5664E+00  0.8094E+01
  18.100  0.5679E+00  0.8122E+01
  18.150  0.5694E+00  0.8150E+01
  18.200  0.5709E+00  0.8179E+01
  18.250  0.5725E+00  0.8208E+01
  18.300  0.5741E+00  0.8236E+01
  18.350  0.5759E+00  0.8265E+01
  18.400  0.5778E+00  0.8294E+01
  18.450  0.5798E+00  0.8323E+01
  18.500  0.5820E+00  0.8352E+01
  18.550  0.5844E+00  0.8381E+01
  18.600  0.5870E+00  0.8411E+01
  18.650  0.5899E+00  0.8440E+01
  18.700  0.5930E+00  0.8470E+01
  18.750  0.5964E+00  0.8500E+01
  18.800  0.6001E+00  0.8530E+01
  18.850  0.6041E+00  0.8560E+01
  18.900  0.6082E+00  0.8590E+01
  18.950  0.6126E+00  0.8621E+01
  19.000  0.6172E+00  0.8652E+01
  19.050  0.6220E+00  0.8683E+01
  19.100  0.6268E+00  0.8714E+01
  19.150  0.6317E+00  0.8746E+01
  19.200  0.6366E+00  0.8778E+01
  19.250  0.6413E+00  0.8810E+01
  19.300  0.6460E+00  0.8842E+01
  19.350  0.6504E+00  0.8875E+01
  19.400  0.6545E+00  0.8907E+01
  19.450  0.6583E+00  0.8940E+01
  19.500  0.6617E+00  0.8973E+01
  19.550  0.6647E+00  0.9006E+01
  19.600  0.6673E+00  0.9040E+01
  19.650  0.6694E+00  0.9073E+01
  19.700  0.6710E+00  0.9107E+01
  19.750  0.6722E+00  0.9140E+01
  19.800  0.6729E+00  0.9174E+01
  19.850  0.6732E+00  0.9208E+01
  19.900  0.6732E+00  0.9241E+01
  19.950  0.6727E+00  0.9275E+01
  20.000  0.6720E+00  0.9309E+01
